K20Power 1.0	#version
cecag1	#hostname
ScrDescr.out 0 2 2 2 	#command line

0.0570	#active time [s]
3.9287	#active energy [J]

time [s]	power [W]	true power [W]
0.000000	48.536	48.536
0.014253	48.536	48.536
0.028535	48.536	48.536
0.042800	48.536	48.536
0.057054	48.536	48.536
0.071321	48.536	48.536
0.085573	48.536	48.536
0.099830	48.536	48.536
0.114076	48.536	48.536
0.128309	48.536	48.536
0.142586	48.536	48.536
0.156822	48.536	48.536
0.171061	48.536	48.536
0.185309	48.536	48.536
0.199540	48.536	48.536
0.213814	48.536	48.536
0.228059	48.536	48.536
0.242310	48.536	48.536
0.256548	48.536	48.536
0.270780	48.536	48.536
0.285032	48.536	48.536
0.299276	48.536	48.536
0.313529	48.536	48.536
0.327763	48.536	48.536
0.342015	48.536	48.536
0.356278	48.536	48.536
0.370512	48.536	48.536
0.384746	48.536	48.536
0.398980	48.536	48.536
0.413238	48.536	48.536
0.427500	48.536	48.536
0.441753	48.536	48.536
0.456004	48.536	48.536
0.470246	48.536	48.536
0.484485	48.536	48.536
0.498743	48.536	48.536
0.512976	48.536	48.536
0.527218	48.536	48.536
0.541465	48.536	48.536
0.555696	48.536	48.536
0.569984	48.536	48.536
0.584283	48.536	48.536
0.598538	48.536	48.536
0.612778	48.536	48.536
0.627016	48.536	48.536
0.641278	48.536	48.536
0.655513	48.536	48.536
0.669761	48.536	48.536
0.684010	48.536	48.536
0.698259	48.536	48.536
0.712514	48.536	48.536
0.726749	48.536	48.536
0.741020	48.536	48.536
0.755265	48.536	48.536
0.769517	48.536	48.536
0.783754	48.536	48.536
0.797985	48.536	48.536
0.812231	48.536	48.536
0.826464	48.536	51.397
0.840710	48.633	51.494
0.854945	48.633	48.633
0.869191	48.633	48.633
0.883426	48.633	48.633
0.897713	48.633	48.633
0.912014	48.633	48.633
0.926267	48.633	45.774
0.940517	48.536	45.677
0.954762	48.536	48.536
0.968999	48.536	48.536
0.983262	48.536	48.536
0.997503	48.536	48.536
1.011740	48.536	48.536
1.026008	48.536	48.536
1.040275	48.536	48.536
1.054531	48.536	48.536
1.068764	48.536	48.536
1.083012	48.536	48.536
1.097251	48.536	48.536
1.111482	48.536	48.536
1.125735	48.536	48.536
1.139982	48.536	48.536
1.154220	48.536	48.536
1.168453	48.536	48.536
1.182690	48.536	48.536
1.196967	48.536	48.536
1.211206	48.536	48.536
1.225446	48.536	48.536
1.239686	48.536	48.536
1.253930	48.536	48.536
1.268182	48.536	48.536
1.282421	48.536	48.536
1.296671	48.536	48.536
1.310909	48.536	48.536
1.325143	48.536	48.536
1.339385	48.536	48.536
1.353618	48.536	48.536
1.367858	48.536	48.536
1.382103	48.536	48.536
1.396334	48.536	48.536
1.410586	48.536	48.536
1.424829	48.536	48.536
1.439448	48.536	48.536
1.453692	48.536	48.536
1.467925	48.536	48.536
1.482183	48.536	48.536
1.496422	48.536	48.536
1.510655	48.536	48.536
1.524891	48.536	48.536
1.539555	48.536	48.536
1.553807	48.536	48.536
1.568041	48.536	48.536
1.582329	48.536	48.536
1.596584	48.536	48.536
1.610848	48.536	48.536
1.625086	48.536	48.536
1.639494	48.536	48.536
1.653757	48.536	48.536
1.668001	48.536	48.536
1.682267	48.536	48.536
1.696505	48.536	48.536
1.710748	48.536	48.536
1.724982	48.536	51.365
1.739550	48.633	51.460
1.753801	48.633	48.633
1.768048	48.633	48.633
1.782279	48.633	48.633
1.796514	48.633	48.633
1.810745	48.633	48.633
1.825013	48.633	45.813
1.839635	48.536	45.714
1.853888	48.536	48.536
1.868126	48.536	48.536
1.882367	48.536	48.536
1.896672	48.536	48.536
1.910925	48.536	48.536
1.925171	48.536	48.536
1.939551	48.536	48.536
1.953810	48.536	48.536
1.968092	48.536	48.536
1.982331	48.536	48.536
1.996571	48.536	48.536
2.010815	48.536	48.536
2.025054	48.536	48.536
2.039616	48.536	48.536
2.053871	48.536	48.536
2.068106	48.536	48.536
2.082364	48.536	48.536
2.096595	48.536	48.536
2.110852	48.536	48.536
2.125094	48.536	48.536
2.139600	48.536	48.536
2.153860	48.536	48.536
2.168097	48.536	48.536
2.182344	48.536	48.536
2.196601	48.536	48.536
2.210843	48.536	48.536
2.225084	48.536	48.536
2.239739	48.536	48.536
2.253997	48.536	48.536
2.268237	48.536	48.536
2.282493	48.536	48.536
2.296727	48.536	48.536
2.310979	48.536	48.536
2.325243	48.536	48.536
2.339748	48.536	48.536
2.353991	48.536	48.536
2.368229	48.536	48.536
2.382493	48.536	48.536
2.396727	48.536	48.536
2.410959	48.536	48.536
2.425204	48.536	48.536
2.439686	48.536	48.536
2.453949	48.536	48.536
2.468194	48.536	48.536
2.482429	48.536	48.536
2.496670	48.536	48.536
2.510906	48.536	48.536
2.525160	48.536	48.536
2.539751	48.536	48.536
2.554011	48.536	48.536
2.568242	48.536	48.536
2.582501	48.536	48.536
2.596789	48.536	48.536
2.611038	48.536	48.536
2.625273	48.536	48.536
2.639720	48.536	48.536
2.653966	48.536	48.536
2.668246	48.536	48.536
2.682480	48.536	48.536
2.696713	48.536	48.536
2.710953	48.536	48.536
2.725200	48.536	48.536
2.739915	48.536	48.536
2.754162	48.536	48.536
2.768395	48.536	48.536
2.782633	48.536	48.536
2.796866	48.536	48.536
2.811118	48.536	48.536
2.825364	48.536	48.536
2.840007	48.536	48.536
2.854254	48.536	48.536
2.868508	48.536	48.536
2.882758	48.536	48.536
2.897010	48.536	48.536
2.911263	48.536	48.536
2.925500	48.536	48.536
2.939975	48.536	48.536
2.954231	48.536	48.536
2.968466	48.536	48.536
2.982705	48.536	48.536
2.996939	48.536	48.536
3.011199	48.536	48.536
3.025430	48.536	48.536
3.039925	48.536	48.536
3.054165	48.536	48.536
3.068405	48.536	48.536
3.082657	48.536	48.536
3.096895	48.536	48.536
3.111126	48.536	48.536
3.125367	48.536	48.536
3.140004	48.536	48.536
3.154261	48.536	48.536
3.168511	48.536	48.536
3.182745	48.536	48.536
3.196977	48.536	48.536
3.211212	48.536	48.536
3.225479	48.536	51.360
3.240063	48.633	51.459
3.254311	48.633	48.633
3.268545	48.633	48.633
3.282787	48.633	48.633
3.297047	48.633	48.633
3.311281	48.633	48.633
3.325514	48.633	48.633
3.340087	48.633	48.633
3.354331	48.633	48.633
3.368583	48.633	48.633
3.382822	48.633	48.633
3.397065	48.633	48.633
3.411299	48.633	48.633
3.425530	48.633	48.633
3.440167	48.633	48.633
3.454420	48.633	48.633
3.468654	48.633	48.633
3.482894	48.633	48.633
3.497129	48.633	48.633
3.511385	48.633	48.633
3.525618	48.633	48.633
3.540137	48.633	48.633
3.554382	48.633	48.633
3.568633	48.633	48.633
3.582887	48.633	48.633
3.597128	48.633	48.633
3.611391	48.633	48.633
3.625634	48.633	48.633
3.640304	48.633	48.633
3.654569	48.633	48.633
3.668802	48.633	48.633
3.683061	48.633	48.633
3.697295	48.633	48.633
3.711546	48.633	48.633
3.725784	48.633	45.795
3.740255	48.536	45.701
3.754524	48.536	48.536
3.768758	48.536	48.536
3.783022	48.536	48.536
3.797260	48.536	48.536
3.811494	48.536	48.536
3.825725	48.536	48.536
3.840276	48.536	48.536
3.854541	48.536	48.536
3.868794	48.536	48.536
3.883041	48.536	48.536
3.897275	48.536	48.536
3.911546	48.536	48.536
3.925808	48.536	51.379
3.940203	48.633	51.479
3.954440	48.633	48.633
3.968700	48.633	48.633
3.982936	48.633	48.633
3.997237	48.633	48.633
4.017701	48.633	48.049
4.040367	48.603	48.031
4.061757	48.603	48.603
4.080370	48.603	48.603
4.098608	48.603	48.603
4.118044	48.603	40.520
4.140491	48.200	40.219
4.160459	48.200	48.200
4.179344	48.200	48.200
4.194331	48.200	48.200
4.208598	48.200	50.503
4.288785	48.459	50.762
4.303077	48.459	48.459
4.317322	48.459	48.459
4.331559	48.459	58.243
4.345826	48.791	58.565
4.360092	48.791	48.791
4.374346	48.791	48.791
4.388586	48.791	48.791
4.402821	48.791	48.791
4.417096	48.791	48.791
4.431332	48.791	12.606
4.445580	47.564	11.379
4.459816	47.564	47.564
4.474060	47.564	47.564
4.488753	47.564	47.564
4.503054	47.564	47.564
4.517291	47.564	47.564
4.531533	47.564	39.075
4.545788	47.276	38.786
4.560027	47.276	47.276
4.574276	47.276	47.276
4.588518	47.276	47.276
4.602762	47.276	47.276
4.617000	47.276	47.276
4.631233	47.276	47.276
4.645489	47.276	47.276
4.659724	47.276	47.276
4.673956	47.276	47.276
4.688193	47.276	47.276
4.702433	47.276	47.276
4.716665	47.276	47.276
4.730907	47.276	44.445
4.745153	47.180	44.351
4.759412	47.180	47.180
4.773652	47.180	47.180
4.787889	47.180	47.180
4.802145	47.180	47.180
4.816383	47.180	47.180
4.830617	47.180	47.180
4.844887	47.180	47.180
4.859128	47.180	47.180
4.873368	47.180	47.180
4.887607	47.180	47.180
4.901839	47.180	47.180
4.916085	47.180	47.180
4.930328	47.180	50.010
4.944579	47.276	50.106
4.958822	47.276	47.276
4.973089	47.276	47.276
4.987329	47.276	47.276
5.001578	47.276	47.276
5.015815	47.276	47.276
5.030077	47.276	52.992
5.044323	47.470	53.185
5.058592	47.470	47.470
5.072824	47.470	47.470
5.087062	47.470	47.470
5.101312	47.470	47.470
5.115543	47.470	47.470
5.129777	47.470	78.878
5.144053	48.536	79.940
5.158291	48.536	48.536
5.172528	48.536	48.536
5.186768	48.536	48.536
5.201025	48.536	48.536
5.215261	48.536	48.536
5.229497	48.536	51.397
5.243737	48.633	51.494
5.257981	48.633	48.633
5.272221	48.633	48.633
5.286455	48.633	48.633
5.300690	48.633	48.633
5.314934	48.633	48.633
5.329170	48.633	48.633
5.343420	48.633	48.633
5.357652	48.633	48.633
5.371892	48.633	48.633
5.386126	48.633	48.633
5.400364	48.633	48.633
5.414598	48.633	48.633
5.428836	48.633	48.633
5.443104	48.633	48.633
5.457344	48.633	48.633
5.471593	48.633	48.633
5.485832	48.633	48.633
5.500082	48.633	48.633
5.514317	48.633	48.633
5.528563	48.633	48.633
5.542816	48.633	48.633
5.557078	48.633	48.633
5.571313	48.633	48.633
5.585552	48.633	48.633
5.599819	48.633	48.633
5.614057	48.633	48.633
5.628288	48.633	48.633
5.642536	48.633	48.633
5.656785	48.633	48.633
5.671022	48.633	48.633
5.685253	48.633	48.633
5.699494	48.633	48.633
5.713734	48.633	48.633
5.727998	48.633	48.633
5.742245	48.633	48.633
5.756480	48.633	48.633
5.770742	48.633	48.633
5.784979	48.633	48.633
5.799213	48.633	48.633
5.813471	48.633	48.633
5.827708	48.633	48.633
5.841956	48.633	48.633
5.856217	48.633	48.633
5.870451	48.633	48.633
5.884691	48.633	48.633
5.898932	48.633	48.633
5.913192	48.633	48.633
5.927430	48.633	48.633
5.941685	48.633	48.633
5.955928	48.633	48.633
5.970162	48.633	48.633
5.984398	48.633	48.633
5.998643	48.633	48.633
6.012874	48.633	48.633
6.027130	48.633	48.633
6.041382	48.633	48.633
6.055618	48.633	48.633
6.069852	48.633	48.633
6.084095	48.633	48.633
6.098336	48.633	48.633
6.112570	48.633	48.633
6.126804	48.633	48.633
6.141060	48.633	48.633
6.155297	48.633	48.633
6.169541	48.633	48.633
6.183781	48.633	48.633
6.198019	48.633	48.633
6.212253	48.633	48.633
6.226487	48.633	48.633
6.240809	48.633	48.633
6.255048	48.633	48.633
6.269282	48.633	48.633
6.283517	48.633	48.633
6.297764	48.633	48.633
6.312001	48.633	48.633
6.326239	48.633	51.453
6.340899	48.730	51.547
6.355166	48.730	48.730
6.369419	48.730	48.730
6.383653	48.730	48.730
6.397889	48.730	48.730
6.412161	48.730	48.730
6.426405	48.730	45.889
6.440844	48.633	45.793
6.455100	48.633	48.633
6.469340	48.633	48.633
6.483574	48.633	48.633
6.497808	48.633	48.633
6.512048	48.633	48.633
6.526286	48.633	48.633
6.540943	48.633	48.633
6.555200	48.633	48.633
6.569437	48.633	48.633
6.583679	48.633	48.633
6.597911	48.633	48.633
6.612145	48.633	48.633
6.626378	48.633	48.633
6.640841	48.633	48.633
6.655096	48.633	48.633
6.669348	48.633	48.633
6.683582	48.633	48.633
6.697850	48.633	48.633
6.712084	48.633	48.633
6.726402	48.633	48.633
6.740728	48.633	48.633
6.755040	48.633	48.633
6.769338	48.633	48.633
6.783635	48.633	48.633
6.797931	48.633	48.633
6.812259	48.633	48.633
6.826556	48.633	48.633
6.840853	48.633	48.633
6.855159	48.633	48.633
6.869466	48.633	48.633
6.883768	48.633	48.633
6.898075	48.633	48.633
6.912385	48.633	48.633
6.926690	48.633	48.633
6.940985	48.633	48.633
6.955290	48.633	48.633
6.969631	48.633	48.633
6.983937	48.633	48.633
6.998249	48.633	48.633
7.012554	48.633	48.633
7.026853	48.633	48.633
7.041343	48.633	48.633
7.055841	48.633	48.633
7.070291	48.633	48.633
7.084753	48.633	48.633
7.099213	48.633	48.633
7.113692	48.633	48.633
7.128176	48.633	48.633
7.142639	48.633	48.633
7.157116	48.633	48.633
7.171593	48.633	48.633
7.186060	48.633	48.633
7.200518	48.633	48.633
7.214990	48.633	48.633
7.229476	48.633	48.633
7.243942	48.633	48.633
7.258438	48.633	48.633
7.272892	48.633	48.633
7.287355	48.633	48.633
7.301809	48.633	48.633
7.316299	48.633	48.633
7.330776	48.633	48.633
7.345243	48.633	48.633
7.359706	48.633	48.633
7.374169	48.633	48.633
7.388623	48.633	48.633
7.403108	48.633	48.633
7.417595	48.633	48.633
7.432094	48.633	48.633
7.446565	48.633	48.633
7.461018	48.633	48.633
7.475464	48.633	48.633
7.489927	48.633	48.633
7.504383	48.633	48.633
7.518838	48.633	48.633
7.533335	48.633	48.633
7.547807	48.633	48.633
7.562320	48.633	48.633
7.576772	48.633	48.633
7.591235	48.633	48.633
7.605685	48.633	48.633
7.620143	48.633	48.633
7.634624	48.633	0.000
7.649098	14.601	0.000
7.663551	14.601	14.601
7.678013	14.601	14.601
7.692463	14.601	14.601
7.706922	14.601	14.601
7.721390	14.601	14.601
7.735866	14.601	14.601
7.750345	14.601	14.601
7.764806	14.601	14.601
7.779257	14.601	14.601
7.793704	14.601	14.601
7.808162	14.601	14.601
7.822622	14.601	14.601
7.837093	14.601	14.601
7.851561	14.601	14.601
7.866054	14.601	14.601
7.880516	14.601	14.601
7.894979	14.601	14.601
7.909431	14.601	14.601
7.923922	14.601	14.601
7.938383	14.601	14.601
7.952868	14.601	14.601
7.967347	14.601	14.601
7.981808	14.601	14.601
7.996276	14.601	14.601
8.010770	14.601	14.601
8.025222	14.601	14.601
8.039680	14.601	14.601
8.054163	14.601	14.601
8.068655	14.601	14.601
8.083152	14.601	14.601
8.097605	14.601	14.601
8.112072	14.601	14.601
8.126528	14.601	14.601
8.141016	14.601	14.601
8.155489	14.601	14.601
8.169985	14.601	14.601
8.184449	14.601	14.601
8.198906	14.601	14.601
8.213369	14.601	14.601
8.227828	14.601	14.601
8.242308	14.601	14.601
8.256788	14.601	14.601
8.271249	14.601	14.601
8.285701	14.601	14.601
8.300153	14.601	14.601
8.314606	14.601	14.601
8.329074	14.601	14.601
8.343528	14.601	14.601
8.358019	14.601	14.601
8.372486	14.601	14.601
8.386950	14.601	14.601
8.401424	14.601	14.601
8.415876	14.601	14.601
8.430336	14.601	14.601
8.444794	14.601	14.601
8.459256	14.601	14.601
8.473735	14.601	14.601
8.488220	14.601	14.601
8.502689	14.601	14.601
8.517152	14.601	14.601
8.531606	14.601	14.601
8.546072	14.601	14.601
8.560524	14.601	14.601
8.575024	14.601	14.601
8.589489	14.601	14.601
8.603951	14.601	14.601
8.618418	14.601	14.601
8.632882	14.601	17.417
8.647351	14.698	17.514
8.661813	14.698	14.698
8.676257	14.698	14.698
8.690715	14.698	14.698
8.705168	14.698	14.698
8.719629	14.698	14.698
8.734101	14.698	14.698
8.748575	14.698	14.698
8.763071	14.698	14.698
8.777542	14.698	14.698
8.791990	14.698	14.698
8.806448	14.698	14.698
8.820898	14.698	14.698
8.835434	14.698	14.698
8.849924	14.698	14.698
8.864422	14.698	14.698
8.878884	14.698	14.698
8.893373	14.698	14.698
8.907830	14.698	14.698
8.922365	14.698	14.698
8.936831	14.698	14.698
8.951316	14.698	14.698
8.965760	14.698	14.698
8.980219	14.698	14.698
8.994673	14.698	14.698
9.009165	14.698	14.698
9.023617	14.698	14.698
9.038119	14.698	14.698
9.052582	14.698	14.698
9.067051	14.698	14.698
9.081515	14.698	14.698
9.095977	14.698	14.698
9.110430	14.698	14.698
9.124889	14.698	14.698
9.139350	14.698	14.698
9.153837	14.698	14.698
9.168316	14.698	14.698
9.182786	14.698	14.698
9.197248	14.698	14.698
9.211704	14.698	14.698
9.226170	14.698	14.698
9.240618	14.698	14.698
9.255120	14.698	14.698
9.269582	14.698	14.698
9.284051	14.698	14.698
9.298513	14.698	14.698
9.312977	14.698	14.698
9.327462	14.698	14.698
9.341921	14.698	14.698
9.356402	14.698	14.698
9.370890	14.698	14.698
9.385477	14.698	14.698
9.399933	14.698	14.698
9.414393	14.698	14.698
9.428887	14.698	14.698
9.443390	14.698	14.698
9.457850	14.698	14.698
9.472294	14.698	14.698
9.486752	14.698	14.698
9.501206	14.698	14.698
9.515664	14.698	14.698
9.530125	14.698	14.698
9.544611	14.698	14.698
9.559135	14.698	14.698
9.573592	14.698	14.698
9.588057	14.698	14.698
9.602542	14.698	14.698
9.616998	14.698	14.698
9.631454	14.698	11.851
9.645917	14.600	11.754
9.660375	14.600	14.600
9.674831	14.600	14.600
9.689287	14.600	14.600
9.703747	14.600	14.600
9.718237	14.600	14.600
9.732713	14.600	14.600
9.747183	14.600	14.600
9.761642	14.600	14.600
9.776113	14.600	14.600
9.790557	14.600	14.600
9.805025	14.600	14.600
9.819501	14.600	14.600
9.833987	14.600	14.600
9.848473	14.600	14.600
9.862947	14.600	14.600
9.877416	14.600	14.600
9.891867	14.600	14.600
9.906318	14.600	14.600
9.920802	14.600	14.600
9.935282	14.600	14.600
9.949756	14.600	14.600
9.964213	14.600	14.600
9.978671	14.600	14.600
9.993152	14.600	14.600
10.007623	14.600	14.600
10.022111	14.600	14.600
10.036583	14.600	14.600
10.051054	14.600	14.600
10.065518	14.600	14.600
10.079975	14.600	14.600
10.094429	14.600	14.600
10.108888	14.600	14.600
10.123408	14.600	14.600
10.137884	14.600	14.600
10.152373	14.600	14.600
10.166816	14.600	14.600
10.181274	14.600	14.600
10.195731	14.600	14.600
10.210189	14.600	14.600
10.224654	14.600	14.600
10.239117	14.600	14.600
10.253590	14.600	14.600
10.268083	14.600	14.600
10.282551	14.600	14.600
10.297008	14.600	14.600
10.311459	14.600	14.600
10.325919	14.600	14.600
10.340383	14.600	14.600
10.354835	14.600	14.600
10.369319	14.600	14.600
10.383802	14.600	14.600
10.398274	14.600	14.600
10.412731	14.600	14.600
10.427191	14.600	14.600
10.441652	14.600	14.600
10.456125	14.600	14.600
10.470594	14.600	14.600
10.485079	14.600	14.600
10.499566	14.600	14.600
10.514045	14.600	14.600
10.528489	14.600	14.600
10.542948	14.600	14.600
10.557408	14.600	14.600
10.571897	14.600	14.600
10.586370	14.600	14.600
10.600863	14.600	14.600
10.615307	14.600	14.600
10.629769	14.600	17.459
10.644104	14.698	17.558
10.658557	14.698	14.698
10.673058	14.698	14.698
10.687563	14.698	14.698
10.702053	14.698	14.698
10.716516	14.698	14.698
10.730972	14.698	14.698
10.745519	14.698	14.698
10.760009	14.698	14.698
10.774485	14.698	14.698
10.788949	14.698	14.698
10.803451	14.698	14.698
10.817903	14.698	14.698
10.832360	14.698	14.698
10.846821	14.698	14.698
10.861310	14.698	14.698
10.875785	14.698	14.698
10.890246	14.698	14.698
10.904692	14.698	14.698
10.919149	14.698	14.698
10.933606	14.698	14.698
10.948071	14.698	14.698
10.962518	14.698	14.698
10.977024	14.698	14.698
10.991484	14.698	14.698
11.005945	14.698	14.698
11.020415	14.698	14.698
11.034878	14.698	14.698
11.049337	14.698	14.698
11.063658	14.698	14.698
11.078114	14.698	14.698
11.092566	14.698	14.698
11.107025	14.698	14.698
11.121473	14.698	14.698
11.135959	14.698	14.698
11.150447	14.698	14.698
11.164930	14.698	14.698
11.179399	14.698	14.698
11.193863	14.698	14.698
11.208318	14.698	14.698
11.222776	14.698	14.698
11.237259	14.698	14.698
11.251744	14.698	14.698
11.266231	14.698	14.698
11.280675	14.698	14.698
11.295129	14.698	14.698
11.309592	14.698	14.698
11.324056	14.698	14.698
11.338502	14.698	14.698
11.353025	14.698	14.698
11.367508	14.698	14.698
11.381973	14.698	14.698
11.396429	14.698	14.698
11.410890	14.698	14.698
11.425351	14.698	14.698
11.439806	14.698	14.698
11.454290	14.698	14.698
11.468771	14.698	14.698
11.483243	14.698	14.698
11.497700	14.698	14.698
11.512159	14.698	14.698
11.526617	14.698	14.698
11.541096	14.698	14.698
11.555590	14.698	14.698
11.570080	14.698	14.698
11.584562	14.698	14.698
11.599066	14.698	14.698
11.613518	14.698	14.698
11.627978	14.698	12.033
11.644407	14.600	11.936
11.658881	14.600	14.600
11.673436	14.600	14.600
11.687899	14.600	14.600
11.702372	14.600	14.600
11.716834	14.600	14.600
11.731337	14.600	14.600
11.745782	14.600	14.600
11.760284	14.600	14.600
11.774779	14.600	14.600
11.789266	14.600	14.600
11.803731	14.600	14.600
11.818191	14.600	14.600
11.832654	14.600	14.600
11.847117	14.600	14.600
11.861565	14.600	14.600
11.876058	14.600	14.600
11.890545	14.600	14.600
11.905010	14.600	14.600
11.919461	14.600	14.600
11.933920	14.600	14.600
11.948382	14.600	14.600
11.962837	14.600	14.600
11.977322	14.600	14.600
11.991800	14.600	14.600
12.006272	14.600	14.600
12.020733	14.600	14.600
12.035191	14.600	14.600
12.049649	14.600	14.600
12.064120	14.600	14.600
12.078566	14.600	14.600
12.093077	14.600	14.600
12.107562	14.600	14.600
12.122041	14.600	14.600
12.136489	14.600	14.600
12.150949	14.600	14.600
12.165406	14.600	14.600
12.179866	14.600	14.600
12.194350	14.600	14.600
12.208836	14.600	14.600
12.223308	14.600	14.600
12.237762	14.600	14.600
12.252220	14.600	14.600
12.266678	14.600	14.600
12.281142	14.600	14.600
12.295622	14.600	14.600
12.310111	14.600	14.600
12.324593	14.600	14.600
12.339053	14.600	14.600
12.353498	14.600	14.600
12.367949	14.600	14.600
12.382408	14.600	14.600
12.396928	14.600	14.600
12.411401	14.600	14.600
12.425865	14.600	14.600
12.440333	14.600	14.600
12.454796	14.600	14.600
12.469251	14.600	14.600
12.483709	14.600	14.600
12.498192	14.600	14.600
12.512679	14.600	14.600
12.527164	14.600	14.600
12.541607	14.600	14.600
12.556070	14.600	14.600
12.570525	14.600	14.600
12.584978	14.600	14.600
12.599441	14.600	14.600
12.613922	14.600	14.600
12.628407	14.600	17.234
12.645176	14.698	17.334
12.659642	14.698	14.698
12.674114	14.698	14.698
12.688590	14.698	14.698
12.703100	14.698	14.698
12.717567	14.698	14.698
12.732036	14.698	14.698
12.746488	14.698	14.698
12.760942	14.698	14.698
12.775401	14.698	14.698
12.789886	14.698	14.698
12.804371	14.698	14.698
12.818857	14.698	14.698
12.833303	14.698	14.698
12.847755	14.698	14.698
12.862223	14.698	14.698
12.876670	14.698	14.698
12.891140	14.698	14.698
12.905672	14.698	14.698
12.920165	14.698	14.698
12.934627	14.698	14.698
12.949094	14.698	14.698
12.963542	14.698	14.698
12.978015	14.698	14.698
12.992594	14.698	14.698
13.007079	14.698	14.698
13.021528	14.698	14.698
13.035991	14.698	14.698
13.050446	14.698	14.698
13.064906	14.698	14.698
13.079388	14.698	14.698
13.093876	14.698	14.698
13.108358	14.698	14.698
13.122803	14.698	14.698
13.137258	14.698	14.698
13.151720	14.698	14.698
13.166175	14.698	14.698
13.180634	14.698	14.698
13.195106	14.698	14.698
13.209574	14.698	14.698
13.224065	14.698	14.698
13.238530	14.698	14.698
13.252991	14.698	14.698
13.267446	14.698	14.698
13.281908	14.698	14.698
13.296362	14.698	14.698
13.310852	14.698	14.698
13.325327	14.698	14.698
13.339788	14.698	14.698
13.354232	14.698	14.698
13.368691	14.698	14.698
13.383146	14.698	14.698
13.397604	14.698	14.698
13.412072	14.698	14.698
13.426579	14.698	14.698
13.441064	14.698	14.698
13.455548	14.698	14.698
13.470025	14.698	14.698
13.484480	14.698	14.698
13.498935	14.698	14.698
13.513423	14.698	14.698
13.527905	14.698	14.698
13.542396	14.698	14.698
13.556859	14.698	14.698
13.571319	14.698	14.698
13.585776	14.698	14.698
13.600269	14.698	14.698
13.614748	14.698	14.698
13.629229	14.698	14.698
13.645651	14.698	14.698
13.660141	14.698	14.698
13.674615	14.698	14.698
13.689083	14.698	14.698
13.703545	14.698	14.698
13.718019	14.698	14.698
13.732462	14.698	14.698
13.746921	14.698	14.698
13.761379	14.698	14.698
13.775867	14.698	14.698
13.790345	14.698	14.698
13.804812	14.698	14.698
13.819274	14.698	14.698
13.833738	14.698	14.698
13.848190	14.698	14.698
13.862650	14.698	14.698
13.877133	14.698	14.698
13.891618	14.698	14.698
13.906114	14.698	14.698
13.920575	14.698	14.698
13.935047	14.698	14.698
13.949496	14.698	14.698
13.963951	14.698	14.698
13.978435	14.698	14.698
13.992915	14.698	14.698
14.007414	14.698	14.698
14.021876	14.698	14.698
14.036333	14.698	14.698
14.050792	14.698	14.698
14.065257	14.698	14.698
14.079736	14.698	14.698
14.094242	14.698	14.698
14.108707	14.698	14.698
14.123159	14.698	14.698
14.137604	14.698	14.698
14.152074	14.698	14.698
14.166520	14.698	14.698
14.181016	14.698	14.698
14.195486	14.698	14.698
14.209948	14.698	14.698
14.224421	14.698	14.698
14.238876	14.698	14.698
14.253339	14.698	14.698
14.267792	14.698	14.698
14.282257	14.698	14.698
14.296732	14.698	14.698
14.311216	14.698	14.698
14.325676	14.698	14.698
14.340128	14.698	14.698
14.354577	14.698	14.698
14.369042	14.698	14.698
14.383491	14.698	14.698
14.397956	14.698	14.698
14.412430	14.698	14.698
14.426895	14.698	14.698
14.441373	14.698	14.698
14.455850	14.698	14.698
14.470303	14.698	14.698
14.484762	14.698	14.698
14.499221	14.698	14.698
14.513710	14.698	14.698
14.528185	14.698	14.698
14.542646	14.698	14.698
14.557123	14.698	14.698
14.571494	14.698	14.698
14.585942	14.698	14.698
14.600407	14.698	14.698
14.614859	14.698	14.698
14.629324	14.698	14.645
14.646367	14.696	14.643
14.660816	14.696	14.696
14.675301	14.696	14.696
14.689785	14.696	14.696
14.704271	14.696	14.696
14.718715	14.696	14.696
14.733175	14.696	14.696
14.747633	14.696	14.696
14.762094	14.696	14.696
14.776545	14.696	14.696
14.791042	14.696	14.696
14.805513	14.696	14.696
14.820009	14.696	14.696
14.834469	14.696	14.696
14.848929	14.696	14.696
14.863422	14.696	14.696
14.877899	14.696	14.696
14.892382	14.696	14.696
14.906872	14.696	14.696
14.921322	14.696	14.696
14.935768	14.696	14.696
14.950228	14.696	14.696
14.964689	14.696	14.696
14.979177	14.696	14.696
14.993653	14.696	14.696
15.008125	14.696	14.696
15.022584	14.696	14.696
15.037056	14.696	14.696
15.051498	14.696	14.696
15.065958	14.696	14.696
15.080417	14.696	14.696
15.094906	14.696	14.696
15.109384	14.696	14.696
15.123853	14.696	14.696
15.138312	14.696	14.696
15.152776	14.696	14.696
15.167229	14.696	14.696
15.182332	14.696	14.696
15.196842	14.696	14.696
15.211300	14.696	14.696
15.225755	14.696	14.696
15.240087	14.696	14.696
15.254556	14.696	14.696
15.269017	14.696	14.696
15.283468	14.696	14.696
15.297949	14.696	14.696
15.312436	14.696	14.696
15.326901	14.696	14.696
15.341362	14.696	14.696
15.355822	14.696	14.696
15.370285	14.696	14.696
15.384738	14.696	14.696
15.399197	14.696	14.696
15.413682	14.696	14.696
15.428174	14.696	14.696
15.442633	14.696	14.696
15.457102	14.696	14.696
15.471550	14.696	14.696
15.486021	14.696	14.696
15.500466	14.696	14.696
15.514952	14.696	14.696
15.529566	14.696	14.696
15.544038	14.696	14.696
15.558513	14.696	14.696
15.572972	14.696	14.696
15.587453	14.696	14.696
15.601940	14.696	14.696
15.616427	14.696	14.696
15.630896	14.696	14.751
15.647006	14.698	14.753
15.661468	14.698	14.698
15.675921	14.698	14.698
15.690405	14.698	14.698
15.704889	14.698	14.698
15.719362	14.698	14.698
15.733817	14.698	14.698
15.748276	14.698	14.698
15.762733	14.698	14.698
15.777199	14.698	14.698
15.791651	14.698	14.698
15.806139	14.698	14.698
15.820618	14.698	14.698
15.835100	14.698	14.698
15.849544	14.698	14.698
15.864017	14.698	14.698
15.878469	14.698	14.698
15.892927	14.698	14.698
15.907380	14.698	14.698
15.921864	14.698	14.698
15.936347	14.698	14.698
15.950822	14.698	14.698
15.965278	14.698	14.698
15.979734	14.698	14.698
15.994193	14.698	14.698
16.008656	14.698	14.698
16.023142	14.698	14.698
16.037618	14.698	14.698
16.052119	14.698	14.698
16.066580	14.698	14.698
16.081047	14.698	14.698
16.095493	14.698	14.698
16.109951	14.698	14.698
16.124414	14.698	14.698
16.138892	14.698	14.698
16.153384	14.698	14.698
16.167866	14.698	14.698
16.182318	14.698	14.698
16.196764	14.698	14.698
16.211222	14.698	14.698
16.225686	14.698	14.698
16.240164	14.698	14.698
16.254645	14.698	14.698
16.269114	14.698	14.698
16.283584	14.698	14.698
16.298045	14.698	14.698
16.312491	14.698	14.698
16.326951	14.698	14.698
16.341414	14.698	14.698
16.355895	14.698	14.698
16.370374	14.698	14.698
16.384835	14.698	14.698
16.399285	14.698	14.698
16.413734	14.698	14.698
16.428192	14.698	14.698
16.442651	14.698	14.698
16.457121	14.698	14.698
16.471601	14.698	14.698
16.486084	14.698	14.698
16.500549	14.698	14.698
16.515017	14.698	14.698
16.529469	14.698	14.698
16.543921	14.698	14.698
16.558383	14.698	14.698
16.572843	14.698	14.698
16.587319	14.698	14.698
16.601802	14.698	14.698
16.616264	14.698	14.698
16.630714	14.698	17.272
16.647598	14.794	17.365
16.662076	14.794	14.794
16.676558	14.794	14.794
16.691017	14.794	14.794
16.705487	14.794	14.794
16.719983	14.794	14.794
16.734439	14.794	14.794
16.748923	14.794	14.794
16.763406	14.794	14.794
16.777888	14.794	14.794
16.792336	14.794	14.794
16.806791	14.794	14.794
16.821245	14.794	14.794
16.835703	14.794	14.794
16.850162	14.794	14.794
16.864649	14.794	14.794
16.879130	14.794	14.794
16.893594	14.794	14.794
16.908065	14.794	14.794
16.922520	14.794	14.794
16.936977	14.794	14.794
16.951437	14.794	14.794
16.965892	14.794	14.794
16.980379	14.794	14.794
16.994858	14.794	14.794
17.009328	14.794	14.794
17.023787	14.794	14.794
17.038250	14.794	14.794
17.052706	14.794	14.794
17.067161	14.794	14.794
17.081622	14.794	14.794
17.096118	14.794	14.794
17.110588	14.794	14.794
17.125060	14.794	14.794
17.139515	14.794	14.794
17.153983	14.794	14.794
17.168434	14.794	14.794
17.182892	14.794	14.794
17.197379	14.794	14.794
17.211856	14.794	14.794
17.226323	14.794	14.794
17.240787	14.794	14.794
17.255250	14.794	14.794
17.269703	14.794	14.794
17.284163	14.794	14.794
17.298621	14.794	14.794
17.313137	14.794	14.794
17.327617	14.794	14.794
17.342100	14.794	14.794
17.356548	14.794	14.794
17.371017	14.794	14.794
17.385461	14.794	14.794
17.399922	14.794	14.794
17.414405	14.794	14.794
17.428890	14.794	14.794
17.443374	14.794	14.794
17.457847	14.794	14.794
17.472305	14.794	14.794
17.486768	14.794	14.794
17.501227	14.794	14.794
17.515680	14.794	14.794
17.530164	14.794	14.794
17.544655	14.794	14.794
17.559124	14.794	14.794
17.573579	14.794	14.794
17.588045	14.794	14.794
17.602528	14.794	14.794
17.617015	14.794	14.794
17.631486	14.794	12.213
17.648258	14.698	12.115
17.662711	14.698	14.698
17.677154	14.698	14.698
17.691641	14.698	14.698
17.706128	14.698	14.698
17.720617	14.698	14.698
17.735120	14.698	14.698
17.749567	14.698	14.698
17.764036	14.698	14.698
17.778518	14.698	14.698
17.793016	14.698	14.698
17.807484	14.698	14.698
17.821952	14.698	14.698
17.836414	14.698	14.698
17.850869	14.698	14.698
17.865369	14.698	14.698
17.879840	14.698	14.698
17.894333	14.698	14.698
17.908795	14.698	14.698
17.923255	14.698	14.698
17.937711	14.698	14.698
17.952175	14.698	14.698
17.966628	14.698	14.698
17.981121	14.698	14.698
17.995594	14.698	14.698
18.010075	14.698	14.698
18.024522	14.698	14.698
18.038983	14.698	14.698
18.053471	14.698	14.698
18.067933	14.698	14.698
18.082412	14.698	14.698
18.096895	14.698	14.698
18.111365	14.698	14.698
18.125828	14.698	14.698
18.140282	14.698	14.698
18.154741	14.698	14.698
18.169200	14.698	14.698
18.183691	14.698	14.698
18.198165	14.698	14.698
18.212628	14.698	14.698
18.227109	14.698	14.698
18.241552	14.698	14.698
18.256020	14.698	14.698
18.270471	14.698	14.698
18.284934	14.698	14.698
18.299412	14.698	14.698
18.313895	14.698	14.698
18.328365	14.698	14.698
18.342827	14.698	14.698
18.357281	14.698	14.698
18.371741	14.698	14.698
18.386200	14.698	14.698
18.400689	14.698	14.698
18.415164	14.698	14.698
18.429629	14.698	14.698
18.444105	14.698	14.698
18.458564	14.698	14.698
18.473033	14.698	14.698
18.487477	14.698	14.698
18.502059	14.698	14.698
18.516528	14.698	14.698
18.530974	14.698	14.698
18.545423	14.698	14.698
18.559884	14.698	14.698
18.574348	14.698	14.698
18.588800	14.698	14.698
18.603285	14.698	14.698
18.617768	14.698	14.698
18.632244	14.698	14.698
18.648909	14.698	14.698
18.663374	14.698	14.698
18.677832	14.698	14.698
18.692321	14.698	14.698
18.706800	14.698	14.698
18.721265	14.698	14.698
18.735727	14.698	14.698
18.750193	14.698	14.698
18.764642	14.698	14.698
18.779120	14.698	14.698
18.793590	14.698	14.698
18.808085	14.698	14.698
18.822540	14.698	14.698
18.837007	14.698	14.698
18.851456	14.698	14.698
18.865923	14.698	14.698
18.880405	14.698	14.698
18.894887	14.698	14.698
18.909374	14.698	14.698
18.923841	14.698	14.698
18.938299	14.698	14.698
18.952757	14.698	14.698
18.967221	14.698	14.698
18.981674	14.698	14.698
18.996159	14.698	14.698
19.010673	14.698	14.698
19.025146	14.698	14.698
19.039598	14.698	14.698
19.054067	14.698	14.698
19.068518	14.698	14.698
19.082979	14.698	14.698
19.097511	14.698	14.698
19.111974	14.698	14.698
19.126441	14.698	14.698
19.140905	14.698	14.698
19.155357	14.698	14.698
19.169816	14.698	14.698
19.184277	14.698	14.698
19.198759	14.698	14.698
19.213241	14.698	14.698
19.227708	14.698	14.698
19.242176	14.698	14.698
19.256660	14.698	14.698
19.271121	14.698	14.698
19.285576	14.698	14.698
19.300074	14.698	14.698
19.314540	14.698	14.698
19.329010	14.698	14.698
19.343472	14.698	14.698
19.357934	14.698	14.698
19.372389	14.698	14.698
19.386847	14.698	14.698
19.401305	14.698	14.698
19.415817	14.698	14.698
19.430307	14.698	14.698
19.444772	14.698	14.698
19.459232	14.698	14.698
19.473694	14.698	14.698
19.488150	14.698	14.698
19.502605	14.698	14.698
19.517097	14.698	14.698
19.531580	14.698	14.698
19.546051	14.698	14.698
19.560500	14.698	14.698
19.574958	14.698	14.698
19.589423	14.698	14.698
19.603876	14.698	14.698
19.618361	14.698	14.698
19.632842	14.698	14.698
19.649187	14.698	14.698
19.663630	14.698	14.698
19.678098	14.698	14.698
19.692548	14.698	14.698
19.707049	14.698	14.698
19.721511	14.698	14.698
19.735975	14.698	14.698
19.750308	14.698	14.698
19.764778	14.698	14.698
19.779241	14.698	14.698
19.793700	14.698	14.698
19.808158	14.698	14.698
19.822622	14.698	14.698
19.837107	14.698	14.698
19.851583	14.698	14.698
19.866054	14.698	14.698
19.880517	14.698	14.698
19.894970	14.698	14.698
19.909433	14.698	14.698
19.923891	14.698	14.698
19.938350	14.698	14.698
19.952828	14.698	14.698
19.967312	14.698	14.698
19.981773	14.698	14.698
19.996246	14.698	14.698
20.010699	14.698	14.698
20.025157	14.698	14.698
20.039616	14.698	14.698
20.054112	14.698	14.698
20.068580	14.698	14.698
20.083069	14.698	14.698
20.097514	14.698	14.698
20.111975	14.698	14.698
20.126459	14.698	14.698
20.140920	14.698	14.698
20.155375	14.698	14.698
20.169863	14.698	14.698
20.184342	14.698	14.698
20.198811	14.698	14.698
20.213281	14.698	14.698
20.227729	14.698	14.698
20.242187	14.698	14.698
20.256647	14.698	14.698
20.271135	14.698	14.698
20.285675	14.698	14.698
20.300142	14.698	14.698
20.314601	14.698	14.698
20.329072	14.698	14.698
20.343520	14.698	14.698
20.358008	14.698	14.698
20.372483	14.698	14.698
20.386953	14.698	14.698
20.401411	14.698	14.698
20.415871	14.698	14.698
20.430338	14.698	14.698
20.444793	14.698	14.698
20.459273	14.698	14.698
20.473754	14.698	14.698
20.488216	14.698	14.698
20.502688	14.698	14.698
20.517142	14.698	14.698
20.531602	14.698	14.698
20.546066	14.698	14.698
20.560526	14.698	14.698
20.575009	14.698	14.698
20.589486	14.698	14.698
20.603955	14.698	14.698
20.618416	14.698	14.698
20.632871	14.698	12.089
20.649972	14.600	11.994
20.664454	14.600	14.600
20.678936	14.600	14.600
20.693422	14.600	14.600
20.707894	14.600	14.600
20.722353	14.600	14.600
20.736815	14.600	14.600
20.751268	14.600	14.600
20.765753	14.600	14.600
20.780259	14.600	14.600
20.794741	14.600	14.600
20.809194	14.600	14.600
20.823652	14.600	14.600
20.838120	14.600	14.600
20.852575	14.600	14.600
20.867038	14.600	14.600
20.881513	14.600	14.600
20.895999	14.600	14.600
20.910471	14.600	14.600
20.924925	14.600	14.600
20.939381	14.600	14.600
20.953841	14.600	14.600
20.968306	14.600	14.600
20.982759	14.600	14.600
20.997245	14.600	14.600
21.011725	14.600	14.600
21.026195	14.600	14.600
21.040653	14.600	14.600
21.055119	14.600	14.600
21.069570	14.600	14.600
21.084043	14.600	14.600
21.098511	14.600	14.600
21.113006	14.600	14.600
21.127484	14.600	14.600
21.141958	14.600	14.600
21.156413	14.600	14.600
21.170871	14.600	14.600
21.185330	14.600	14.600
21.199815	14.600	14.600
21.214294	14.600	14.600
21.228762	14.600	14.600
21.243231	14.600	14.600
21.257686	14.600	14.600
21.272141	14.600	14.600
21.286599	14.600	14.600
21.301071	14.600	14.600
21.315541	14.600	14.600
21.330032	14.600	14.600
21.344514	14.600	14.600
21.358966	14.600	14.600
21.373443	14.600	14.600
21.387901	14.600	14.600
21.402359	14.600	14.600
21.416851	14.600	14.600
21.431327	14.600	14.600
21.445791	14.600	14.600
21.460255	14.600	14.600
21.474719	14.600	14.600
21.489171	14.600	14.600
21.503630	14.600	14.600
21.518122	14.600	14.600
21.532598	14.600	14.600
21.547070	14.600	14.600
21.561524	14.600	14.600
21.575984	14.600	14.600
21.590446	14.600	14.600
21.604930	14.600	14.600
21.619413	14.600	14.600
21.633899	14.600	17.259
21.650368	14.698	17.357
21.664862	14.698	14.698
21.679342	14.698	14.698
21.693833	14.698	14.698
21.708307	14.698	14.698
21.722760	14.698	14.698
21.737218	14.698	14.698
21.751677	14.698	14.698
21.766168	14.698	14.698
21.780641	14.698	14.698
21.795110	14.698	14.698
21.809618	14.698	14.698
21.824105	14.698	14.698
21.838548	14.698	14.698
21.853035	14.698	14.698
21.867520	14.698	14.698
21.882020	14.698	14.698
21.896473	14.698	14.698
21.910933	14.698	14.698
21.925392	14.698	14.698
21.939884	14.698	14.698
21.954361	14.698	14.698
21.968844	14.698	14.698
21.983306	14.698	14.698
21.997779	14.698	14.698
22.012234	14.698	14.698
22.026692	14.698	14.698
22.041150	14.698	14.698
22.055613	14.698	14.698
22.070104	14.698	14.698
22.084576	14.698	14.698
22.099048	14.698	14.698
22.113508	14.698	14.698
22.127963	14.698	14.698
22.142419	14.698	14.698
22.156880	14.698	14.698
22.171367	14.698	14.698
22.185844	14.698	14.698
22.200336	14.698	14.698
22.214808	14.698	14.698
22.229263	14.698	14.698
22.243722	14.698	14.698
22.258180	14.698	14.698
22.272673	14.698	14.698
22.287144	14.698	14.698
22.301634	14.698	14.698
22.316088	14.698	14.698
22.330540	14.698	14.698
22.344995	14.698	14.698
22.359451	14.698	14.698
22.373909	14.698	14.698
22.388397	14.698	14.698
22.402876	14.698	14.698
22.417346	14.698	14.698
22.431805	14.698	14.698
22.446268	14.698	14.698
22.460720	14.698	14.698
22.475180	14.698	14.698
22.489667	14.698	14.698
22.504151	14.698	14.698
22.518634	14.698	14.698
22.533097	14.698	14.698
22.547562	14.698	14.698
22.562036	14.698	14.698
22.576483	14.698	14.698
22.590940	14.698	14.698
22.605452	14.698	14.698
22.619942	14.698	14.698
22.634406	14.698	14.698
22.651239	14.698	14.698
22.665711	14.698	14.698
22.680180	14.698	14.698
22.694649	14.698	14.698
22.709132	14.698	14.698
22.723586	14.698	14.698
22.738060	14.698	14.698
22.752503	14.698	14.698
22.766988	14.698	14.698
22.781470	14.698	14.698
22.795940	14.698	14.698
22.810399	14.698	14.698
22.824857	14.698	14.698
22.839315	14.698	14.698
22.853780	14.698	14.698
22.868258	14.698	14.698
22.882739	14.698	14.698
22.897230	14.698	14.698
22.911682	14.698	14.698
22.926135	14.698	14.698
22.940586	14.698	14.698
22.955087	14.698	14.698
22.969590	14.698	14.698
22.984088	14.698	14.698
22.998541	14.698	14.698
23.013022	14.698	14.698
23.027492	14.698	14.698
23.041947	14.698	14.698
23.056460	14.698	14.698
23.070944	14.698	14.698
23.085532	14.698	14.698
23.099989	14.698	14.698
23.114450	14.698	14.698
23.128944	14.698	14.698
23.143447	14.698	14.698
23.157916	14.698	14.698
23.172374	14.698	14.698
23.186839	14.698	14.698
23.201293	14.698	14.698
23.215752	14.698	14.698
23.230242	14.698	14.698
23.244716	14.698	14.698
23.259203	14.698	14.698
23.273648	14.698	14.698
23.288118	14.698	14.698
23.302570	14.698	14.698
23.317030	14.698	14.698
23.331484	14.698	14.698
23.345970	14.698	14.698
23.360442	14.698	14.698
23.374901	14.698	14.698
23.389375	14.698	14.698
23.403838	14.698	14.698
23.418293	14.698	14.698
23.432751	14.698	14.698
23.447209	14.698	14.698
23.461697	14.698	14.698
23.476176	14.698	14.698
23.490638	14.698	14.698
23.505117	14.698	14.698
23.519568	14.698	14.698
23.534029	14.698	14.698
23.548482	14.698	14.698
23.562965	14.698	14.698
23.577449	14.698	14.698
23.591990	14.698	14.698
23.606496	14.698	14.698
23.620951	14.698	14.698
23.635442	14.698	12.018
23.651666	14.600	11.917
23.666129	14.600	14.600
23.680587	14.600	14.600
23.695060	14.600	14.600
23.709503	14.600	14.600
23.723987	14.600	14.600
23.738471	14.600	14.600
23.752946	14.600	14.600
23.767403	14.600	14.600
23.781858	14.600	14.600
23.796318	14.600	14.600
23.810780	14.600	14.600
23.825259	14.600	14.600
23.839740	14.600	14.600
23.854208	14.600	14.600
23.868676	14.600	14.600
23.883141	14.600	14.600
23.897593	14.600	14.600
23.912057	14.600	14.600
23.926496	14.600	14.600
23.940942	14.600	14.600
23.955393	14.600	14.600
23.969885	14.600	14.600
23.984355	14.600	14.600
23.998818	14.600	14.600
24.013262	14.600	14.600
24.027721	14.600	14.600
24.042175	14.600	14.600
24.056632	14.600	14.600
24.071101	14.600	14.600
24.085581	14.600	14.600
24.100066	14.600	14.600
24.114547	14.600	14.600
24.128992	14.600	14.600
24.143457	14.600	14.600
24.157933	14.600	14.600
24.172393	14.600	14.600
24.186879	14.600	14.600
24.201359	14.600	14.600
24.215821	14.600	14.600
24.230288	14.600	14.600
24.244750	14.600	14.600
24.259204	14.600	14.600
24.273724	14.600	14.600
24.288206	14.600	14.600
24.302685	14.600	14.600
24.317144	14.600	14.600
24.331587	14.600	14.600
24.346059	14.600	14.600
24.360538	14.600	14.600
24.375000	14.600	14.600
24.389452	14.600	14.600
24.403941	14.600	14.600
24.418417	14.600	14.600
24.432878	14.600	14.600
24.447345	14.600	14.600
24.461810	14.600	14.600
24.476265	14.600	14.600
24.490722	14.600	14.600
24.505181	14.600	14.600
24.519669	14.600	14.600
24.534149	14.600	14.600
24.548613	14.600	14.600
24.563109	14.600	14.600
24.577569	14.600	14.600
24.592035	14.600	14.600
24.606531	14.600	14.600
24.621027	14.600	14.600
24.635516	14.600	17.227
24.652366	14.698	17.329
24.666810	14.698	14.698
24.681265	14.698	14.698
24.695753	14.698	14.698
24.710230	14.698	14.698
24.724692	14.698	14.698
24.739137	14.698	14.698
24.753593	14.698	14.698
24.768057	14.698	14.698
24.782504	14.698	14.698
24.796964	14.698	14.698
24.811455	14.698	14.698
24.825929	14.698	14.698
24.840397	14.698	14.698
24.854859	14.698	14.698
24.869322	14.698	14.698
24.883775	14.698	14.698
24.898235	14.698	14.698
24.912693	14.698	14.698
24.927183	14.698	14.698
24.941659	14.698	14.698
24.956129	14.698	14.698
24.970588	14.698	14.698
24.985060	14.698	14.698
24.999507	14.698	14.698
25.013964	14.698	14.698
25.028426	14.698	14.698
25.042912	14.698	14.698
25.057385	14.698	14.698
25.071843	14.698	14.698
25.086286	14.698	14.698
25.100751	14.698	14.698
25.115206	14.698	14.698
25.129663	14.698	14.698
25.144126	14.698	14.698
25.158612	14.698	14.698
25.173108	14.698	14.698
25.187556	14.698	14.698
25.202366	14.698	14.698
25.216835	14.698	14.698
25.231297	14.698	14.698
25.245752	14.698	14.698
25.260216	14.698	14.698
25.274669	14.698	14.698
25.289154	14.698	14.698
25.303634	14.698	14.698
25.318111	14.698	14.698
25.332564	14.698	14.698
25.347031	14.698	14.698
25.361481	14.698	14.698
25.375945	14.698	14.698
25.390397	14.698	14.698
25.404882	14.698	14.698
25.419366	14.698	14.698
25.433835	14.698	14.698
25.448297	14.698	14.698
25.462752	14.698	14.698
25.477211	14.698	14.698
25.491674	14.698	14.698
25.506154	14.698	14.698
25.520634	14.698	14.698
25.535104	14.698	14.698
25.549569	14.698	14.698
25.564103	14.698	14.698
25.578574	14.698	14.698
25.593141	14.698	14.698
25.607664	14.698	14.698
25.622128	14.698	14.698
25.636586	14.698	12.060
25.653331	14.600	11.964
25.667812	14.600	14.600
25.682291	14.600	14.600
25.696735	14.600	14.600
25.711190	14.600	14.600
25.725653	14.600	14.600
25.740114	14.600	14.600
25.754565	14.600	14.600
25.769184	14.600	14.600
25.783668	14.600	14.600
25.798127	14.600	14.600
25.812579	14.600	14.600
25.827046	14.600	14.600
25.841500	14.600	14.600
25.855981	14.600	14.600
25.870461	14.600	14.600
25.884922	14.600	14.600
25.899397	14.600	14.600
25.913851	14.600	14.600
25.928309	14.600	14.600
25.942769	14.600	14.600
25.957230	14.600	14.600
25.971710	14.600	14.600
25.986193	14.600	14.600
26.000661	14.600	14.600
26.015127	14.600	14.600
26.029580	14.600	14.600
26.044048	14.600	14.600
26.058495	14.600	14.600
26.072986	14.600	14.600
26.087460	14.600	14.600
26.101923	14.600	14.600
26.116391	14.600	14.600
26.130856	14.600	14.600
26.145307	14.600	14.600
26.159767	14.600	14.600
26.174226	14.600	14.600
26.188714	14.600	14.600
26.203194	14.600	14.600
26.217659	14.600	14.600
26.232128	14.600	14.600
26.246583	14.600	14.600
26.261046	14.600	14.600
26.275498	14.600	14.600
26.289980	14.600	14.600
26.304467	14.600	14.600
26.318955	14.600	14.600
26.333421	14.600	14.600
26.347880	14.600	14.600
26.362343	14.600	14.600
26.376797	14.600	14.600
26.391281	14.600	14.600
26.405762	14.600	14.600
26.420231	14.600	14.600
26.434693	14.600	14.600
26.449151	14.600	14.600
26.463609	14.600	14.600
26.478080	14.600	14.600
26.492550	14.600	14.600
26.507041	14.600	14.600
26.521523	14.600	14.600
26.536009	14.600	14.600
26.550453	14.600	14.600
26.564909	14.600	14.600
26.579369	14.600	14.600
26.593832	14.600	14.600
26.608307	14.600	14.600
26.622793	14.600	14.600
26.637254	14.600	17.246
26.653900	14.698	17.343
26.668371	14.698	14.698
26.682828	14.698	14.698
26.697287	14.698	14.698
26.711766	14.698	14.698
26.726231	14.698	14.698
26.740716	14.698	14.698
26.755187	14.698	14.698
26.769641	14.698	14.698
26.784108	14.698	14.698
26.798557	14.698	14.698
26.813076	14.698	14.698
26.827555	14.698	14.698
26.842033	14.698	14.698
26.856483	14.698	14.698
26.870947	14.698	14.698
26.885407	14.698	14.698
26.899929	14.698	14.698
26.914395	14.698	14.698
26.928864	14.698	14.698
26.943327	14.698	14.698
26.957787	14.698	14.698
26.972242	14.698	14.698
26.986704	14.698	14.698
27.001157	14.698	14.698
27.015642	14.698	14.698
27.030179	14.698	14.698
27.044634	14.698	14.698
27.059091	14.698	14.698
27.073542	14.698	14.698
27.088009	14.698	14.698
27.102467	14.698	14.698
27.116945	14.698	14.698
27.131427	14.698	14.698
27.145892	14.698	14.698
27.160402	14.698	14.698
27.174851	14.698	14.698
27.189301	14.698	14.698
27.203760	14.698	14.698
27.218240	14.698	14.698
27.232726	14.698	14.698
27.247194	14.698	14.698
27.261661	14.698	14.698
27.276124	14.698	14.698
27.290571	14.698	14.698
27.305039	14.698	14.698
27.319493	14.698	14.698
27.333972	14.698	14.698
27.348452	14.698	14.698
27.362911	14.698	14.698
27.377393	14.698	14.698
27.391841	14.698	14.698
27.406301	14.698	14.698
27.420760	14.698	14.698
27.435300	14.698	14.698
27.449787	14.698	14.698
27.464233	14.698	14.698
27.478685	14.698	14.698
27.493153	14.698	14.698
27.507601	14.698	14.698
27.522069	14.698	14.698
27.536523	14.698	14.698
27.551013	14.698	14.698
27.565487	14.698	14.698
27.579955	14.698	14.698
27.594450	14.698	14.698
27.608904	14.698	14.698
27.623365	14.698	14.698
27.637819	14.698	17.275
27.654655	14.794	17.371
27.669115	14.794	14.794
27.683565	14.794	14.794
27.698031	14.794	14.794
27.712487	14.794	14.794
27.726967	14.794	14.794
27.741448	14.794	14.794
27.755910	14.794	14.794
27.770382	14.794	14.794
27.784836	14.794	14.794
27.799299	14.794	14.794
27.813753	14.794	14.794
27.828217	14.794	14.794
27.842695	14.794	14.794
27.857179	14.794	14.794
27.871641	14.794	14.794
27.886120	14.794	14.794
27.900565	14.794	14.794
27.915031	14.794	14.794
27.929483	14.794	14.794
27.943972	14.794	14.794
27.958446	14.794	14.794
27.972906	14.794	14.794
27.987378	14.794	14.794
28.001839	14.794	14.794
28.016299	14.794	14.794
28.030754	14.794	14.794
28.045211	14.794	14.794
28.059700	14.794	14.794
28.074176	14.794	14.794
28.088638	14.794	14.794
28.103157	14.794	14.794
28.117631	14.794	14.794
28.132092	14.794	14.794
28.146569	14.794	14.794
28.161056	14.794	14.794
28.175600	14.794	14.794
28.190076	14.794	14.794
28.204527	14.794	14.794
28.218997	14.794	14.794
28.233468	14.794	14.794
28.247950	14.794	14.794
28.262453	14.794	14.794
28.276922	14.794	14.794
28.291368	14.794	14.794
28.305828	14.794	14.794
28.320286	14.794	14.794
28.334776	14.794	14.794
28.349260	14.794	14.794
28.363723	14.794	14.794
28.378182	14.794	14.794
28.392645	14.794	14.794
28.407106	14.794	14.794
28.421558	14.794	14.794
28.436055	14.794	14.794
28.450525	14.794	14.794
28.464990	14.794	14.794
28.479452	14.794	14.794
28.493911	14.794	14.794
28.508373	14.794	14.794
28.522827	14.794	14.794
28.537286	14.794	14.794
28.551769	14.794	14.794
28.566259	14.794	14.794
28.580722	14.794	14.794
28.595183	14.794	14.794
28.609640	14.794	14.794
28.624111	14.794	14.794
28.638556	14.794	9.545
28.655159	14.600	9.351
28.669604	14.600	14.600
28.684138	14.600	14.600
28.698601	14.600	14.600
28.713081	14.600	14.600
28.727527	14.600	14.600
28.741992	14.600	14.600
28.756444	14.600	14.600
28.770904	14.600	14.600
28.785390	14.600	14.600
28.799873	14.600	14.600
28.814338	14.600	14.600
28.828799	14.600	14.600
28.843259	14.600	14.600
28.857721	14.600	14.600
28.872179	14.600	14.600
28.886633	14.600	14.600
28.900959	14.600	14.600
28.915406	14.600	14.600
28.929886	14.600	14.600
28.944366	14.600	14.600
28.958836	14.600	14.600
28.973296	14.600	14.600
28.987754	14.600	14.600
29.002213	14.600	14.600
29.016677	14.600	14.600
29.031131	14.600	14.600
29.045610	14.600	14.600
29.060107	14.600	14.600
29.074576	14.600	14.600
29.089031	14.600	14.600
29.103485	14.600	14.600
29.117943	14.600	14.600
29.132409	14.600	14.600
29.146885	14.600	14.600
29.161365	14.600	14.600
29.175827	14.600	14.600
29.190277	14.600	14.600
29.204723	14.600	14.600
29.219183	14.600	14.600
29.233646	14.600	14.600
29.248112	14.600	14.600
29.262582	14.600	14.600
29.277083	14.600	14.600
29.291556	14.600	14.600
29.306010	14.600	14.600
29.320451	14.600	14.600
29.334911	14.600	14.600
29.349375	14.600	14.600
29.363853	14.600	14.600
29.378336	14.600	14.600
29.392798	14.600	14.600
29.407271	14.600	14.600
29.421724	14.600	14.600
29.436184	14.600	14.600
29.450701	14.600	14.600
29.465190	14.600	14.600
29.479669	14.600	14.600
29.494137	14.600	14.600
29.508596	14.600	14.600
29.523079	14.600	14.600
29.537543	14.600	14.600
29.552009	14.600	14.600
29.566485	14.600	14.600
29.580977	14.600	14.600
29.595469	14.600	14.600
29.609928	14.600	14.600
29.624383	14.600	14.600
29.638847	14.600	17.229
29.655696	14.698	17.327
29.670162	14.698	14.698
29.684618	14.698	14.698
29.699090	14.698	14.698
29.713564	14.698	14.698
29.728050	14.698	14.698
29.742533	14.698	14.698
29.757015	14.698	14.698
29.771459	14.698	14.698
29.785920	14.698	14.698
29.800379	14.698	14.698
29.814867	14.698	14.698
29.829344	14.698	14.698
29.843804	14.698	14.698
29.858248	14.698	14.698
29.872706	14.698	14.698
29.887162	14.698	14.698
29.901621	14.698	14.698
29.916085	14.698	14.698
29.930545	14.698	14.698
29.945031	14.698	14.698
29.959501	14.698	14.698
29.973962	14.698	14.698
29.988437	14.698	14.698
30.002891	14.698	14.698
30.017350	14.698	14.698
30.031807	14.698	14.698
30.046271	14.698	14.698
30.060750	14.698	14.698
30.075230	14.698	14.698
30.089695	14.698	14.698
30.104165	14.698	14.698
30.118621	14.698	14.698
30.133096	14.698	14.698
30.147570	14.698	14.698
30.162064	14.698	14.698
30.176529	14.698	14.698
30.190987	14.698	14.698
30.205462	14.698	14.698
30.219920	14.698	14.698
30.234378	14.698	14.698
30.248838	14.698	14.698
30.263332	14.698	14.698
30.277802	14.698	14.698
30.292269	14.698	14.698
30.306733	14.698	14.698
30.321196	14.698	14.698
30.335650	14.698	14.698
30.350117	14.698	14.698
30.364565	14.698	14.698
30.379064	14.698	14.698
30.393530	14.698	14.698
30.407995	14.698	14.698
30.422460	14.698	14.698
30.436925	14.698	14.698
30.451385	14.698	14.698
30.465836	14.698	14.698
30.480322	14.698	14.698
30.494807	14.698	14.698
30.509291	14.698	14.698
30.523735	14.698	14.698
30.538191	14.698	14.698
30.552655	14.698	14.698
30.567118	14.698	14.698
30.581564	14.698	14.698
30.596093	14.698	14.698
30.610601	14.698	14.698
30.625070	14.698	14.698
30.639521	14.698	14.698
30.656304	14.698	14.698
30.670768	14.698	14.698
30.685256	14.698	14.698
30.699702	14.698	14.698
30.714154	14.698	14.698
30.728617	14.698	14.698
30.743092	14.698	14.698
30.757537	14.698	14.698
30.772022	14.698	14.698
30.786505	14.698	14.698
30.800984	14.698	14.698
30.815455	14.698	14.698
30.829913	14.698	14.698
30.844375	14.698	14.698
30.858829	14.698	14.698
30.873315	14.698	14.698
30.887795	14.698	14.698
30.902292	14.698	14.698
30.916755	14.698	14.698
30.931214	14.698	14.698
30.945673	14.698	14.698
30.960135	14.698	14.698
30.974615	14.698	14.698
30.989106	14.698	14.698
31.003570	14.698	14.698
31.018038	14.698	14.698
31.032489	14.698	14.698
31.046942	14.698	14.698
31.061400	14.698	14.698
31.075890	14.698	14.698
31.090367	14.698	14.698
31.104834	14.698	14.698
31.119298	14.698	14.698
31.133760	14.698	14.698
31.148213	14.698	14.698
31.162673	14.698	14.698
31.177131	14.698	14.698
31.191618	14.698	14.698
31.206105	14.698	14.698
31.220567	14.698	14.698
31.235039	14.698	14.698
31.249481	14.698	14.698
31.263942	14.698	14.698
31.278402	14.698	14.698
31.292890	14.698	14.698
31.307364	14.698	14.698
31.321828	14.698	14.698
31.336273	14.698	14.698
31.350730	14.698	14.698
31.365183	14.698	14.698
31.379642	14.698	14.698
31.394109	14.698	14.698
31.408596	14.698	14.698
31.423101	14.698	14.698
31.437566	14.698	14.698
31.452034	14.698	14.698
31.466487	14.698	14.698
31.480943	14.698	14.698
31.495401	14.698	14.698
31.509885	14.698	14.698
31.524370	14.698	14.698
31.538833	14.698	14.698
31.553302	14.698	14.698
31.567755	14.698	14.698
31.582217	14.698	14.698
31.596671	14.698	14.698
31.611123	14.698	14.698
31.625615	14.698	14.698
31.640116	14.698	12.077
31.657021	14.600	11.977
31.671505	14.600	14.600
31.685950	14.600	14.600
31.700437	14.600	14.600
31.714889	14.600	14.600
31.729349	14.600	14.600
31.743813	14.600	14.600
31.758264	14.600	14.600
31.772749	14.600	14.600
31.787234	14.600	14.600
31.801705	14.600	14.600
31.816161	14.600	14.600
31.830621	14.600	14.600
31.845091	14.600	14.600
31.859542	14.600	14.600
31.874030	14.600	14.600
31.888500	14.600	14.600
31.902958	14.600	14.600
31.917436	14.600	14.600
31.931890	14.600	14.600
31.946351	14.600	14.600
31.960808	14.600	14.600
31.975270	14.600	14.600
31.989826	14.600	14.600
32.004290	14.600	14.600
32.018732	14.600	14.600
32.033197	14.600	14.600
32.047649	14.600	14.600
32.062120	14.600	14.600
32.076567	14.600	14.600
32.091065	14.600	14.600
32.105529	14.600	14.600
32.120025	14.600	14.600
32.134497	14.600	14.600
32.148955	14.600	14.600
32.163439	14.600	14.600
32.177897	14.600	14.600
32.192385	14.600	14.600
32.206864	14.600	14.600
32.221334	14.600	14.600
32.235797	14.600	14.600
32.250255	14.600	14.600
32.264707	14.600	14.600
32.279168	14.600	14.600
32.293658	14.600	14.600
32.308133	14.600	14.600
32.322592	14.600	14.600
32.337048	14.600	14.600
32.351500	14.600	14.600
32.365951	14.600	14.600
32.380408	14.600	14.600
32.394867	14.600	14.600
32.409357	14.600	14.600
32.423835	14.600	14.600
32.438298	14.600	14.600
32.452764	14.600	14.600
32.467228	14.600	14.600
32.481679	14.600	14.600
32.496137	14.600	14.600
32.510622	14.600	14.600
32.525115	14.600	14.600
32.539594	14.600	14.600
32.554048	14.600	14.600
32.568489	14.600	14.600
32.582956	14.600	14.600
32.597438	14.600	14.600
32.611896	14.600	14.600
32.626379	14.600	14.600
32.640872	14.600	17.232
32.657653	14.698	17.333
32.672109	14.698	14.698
32.686590	14.698	14.698
32.701078	14.698	14.698
32.715558	14.698	14.698
32.730011	14.698	14.698
32.744453	14.698	14.698
32.758919	14.698	14.698
32.773378	14.698	14.698
32.787831	14.698	14.698
32.802316	14.698	14.698
32.816801	14.698	14.698
32.831285	14.698	14.698
32.845755	14.698	14.698
32.860214	14.698	14.698
32.874677	14.698	14.698
32.889132	14.698	14.698
32.903619	14.698	14.698
32.918103	14.698	14.698
32.932595	14.698	14.698
32.947096	14.698	14.698
32.961543	14.698	14.698
32.976011	14.698	14.698
32.990493	14.698	14.698
33.004968	14.698	14.698
33.019459	14.698	14.698
33.033903	14.698	14.698
33.048369	14.698	14.698
33.062815	14.698	14.698
33.077274	14.698	14.698
33.091732	14.698	14.698
33.106222	14.698	14.698
33.120704	14.698	14.698
33.135212	14.698	14.698
33.149688	14.698	14.698
33.164151	14.698	14.698
33.178605	14.698	14.698
33.193126	14.698	14.698
33.207599	14.698	14.698
33.222099	14.698	14.698
33.236559	14.698	14.698
33.251026	14.698	14.698
33.265590	14.698	14.698
33.280081	14.698	14.698
33.294563	14.698	14.698
33.309014	14.698	14.698
33.323469	14.698	14.698
33.337921	14.698	14.698
33.352377	14.698	14.698
33.366837	14.698	14.698
33.381328	14.698	14.698
33.395801	14.698	14.698
33.410262	14.698	14.698
33.424706	14.698	14.698
33.439165	14.698	14.698
33.453620	14.698	14.698
33.468086	14.698	14.698
33.482536	14.698	14.698
33.497008	14.698	14.698
33.511476	14.698	14.698
33.525962	14.698	14.698
33.540434	14.698	14.698
33.554894	14.698	14.698
33.569349	14.698	14.698
33.583807	14.698	14.698
33.598267	14.698	14.698
33.612755	14.698	14.698
33.627230	14.698	14.698
33.641692	14.698	17.321
33.657979	14.794	17.415
33.672454	14.794	14.794
33.686907	14.794	14.794
33.701390	14.794	14.794
33.715873	14.794	14.794
33.730346	14.794	14.794
33.744803	14.794	14.794
33.759265	14.794	14.794
33.773750	14.794	14.794
33.788237	14.794	14.794
33.802714	14.794	14.794
33.817175	14.794	14.794
33.831618	14.794	14.794
33.846086	14.794	14.794
33.860530	14.794	14.794
33.874990	14.794	14.794
33.889449	14.794	14.794
33.903912	14.794	14.794
33.918389	14.794	14.794
33.932872	14.794	14.794
33.947333	14.794	14.794
33.961808	14.794	14.794
33.976265	14.794	14.794
33.990720	14.794	14.794
34.005177	14.794	14.794
34.019641	14.794	14.794
34.034129	14.794	14.794
